Frank-Hertz Experiment											
											
Vr(V)= 1.5											
Cathode Heater Current (mA) = 340											
		 									
Va(V)_1	Ia(E-12 A)_1	T(c)_1	Va(V)_2	Ia(E-12 A)_2	T(c)_2	Va(V)_3	Ia(E-12 A)_3	T(c)_3	Va(V)_4	Ia(E-12 A)_4	T(c)_4
0.00	3.92	93.43	0.00	3.00	93.08	0.00	3.70	100.46	0.00	3.63	110.18
0.10	3.71	93.43	0.10	3.05	93.08	0.10	3.51	100.46	0.10	3.63	110.21
0.20	3.63	93.42	0.20	2.90	93.08	0.20	3.18	100.45	0.20	4.16	110.21
0.30	3.79	93.42	0.30	2.92	93.09	0.30	3.40	100.45	0.30	3.76	110.24
0.40	3.94	93.41	0.40	3.09	93.09	0.40	3.62	100.45	0.40	3.44	110.24
0.50	3.90	93.41	0.50	3.13	93.09	0.50	3.45	100.45	0.50	3.75	110.26
0.60	3.80	93.40	0.60	2.94	93.09	0.60	3.36	100.44	0.60	4.21	110.26
0.70	3.74	93.40	0.70	3.05	93.10	0.70	3.59	100.44	0.70	3.73	110.29
0.80	3.87	93.39	0.80	3.13	93.10	0.80	3.55	100.44	0.80	3.75	110.29
0.90	3.93	93.39	0.90	3.05	93.11	0.90	3.16	100.44	0.90	4.10	110.29
1.00	3.59	93.37	1.00	2.80	93.11	1.00	3.69	100.43	1.00	4.09	110.32
1.10	3.75	93.37	1.10	3.05	93.12	1.10	3.72	100.43	1.10	3.72	110.32
1.20	4.06	93.37	1.20	3.10	93.12	1.20	3.41	100.43	1.20	3.93	110.34
1.30	3.84	93.37	1.30	3.14	93.13	1.30	3.10	100.43	1.30	4.15	110.34
1.40	3.65	93.36	1.40	3.01	93.13	1.40	3.61	100.43	1.40	3.71	110.36
1.50	4.00	93.36	1.50	2.96	93.13	1.50	3.69	100.43	1.50	3.79	110.36
1.60	3.94	93.35	1.60	3.13	93.13	1.60	3.66	100.43	1.60	4.05	110.38
1.70	3.91	93.35	1.70	3.13	93.14	1.70	3.09	100.43	1.70	4.15	110.38
1.80	3.61	93.34	1.80	2.97	93.14	1.80	3.50	100.43	1.80	3.90	110.42
1.90	4.01	93.34	1.90	3.12	93.14	1.90	3.75	100.43	1.90	3.62	110.42
2.00	4.19	93.34	2.00	3.23	93.14	2.00	3.58	100.42	2.00	4.08	110.44
2.10	4.38	93.33	2.10	3.07	93.15	2.10	3.19	100.42	2.10	3.49	110.44
2.20	4.86	93.33	2.20	3.07	93.15	2.20	3.43	100.42	2.20	3.63	110.47
2.30	6.08	93.33	2.30	3.06	93.15	2.30	3.85	100.42	2.30	3.78	110.47
2.40	7.31	93.33	2.40	3.24	93.16	2.40	3.58	100.42	2.40	4.49	110.50
2.50	8.87	93.32	2.50	3.46	93.16	2.50	3.31	100.42	2.50	4.48	110.50
2.60	10.29	93.32	2.60	3.53	93.16	2.60	3.94	100.42	2.60	4.47	110.53
2.70	13.03	93.30	2.70	3.72	93.16	2.70	4.06	100.42	2.70	5.29	110.53
2.80	16.61	93.30	2.80	4.18	93.17	2.80	4.18	100.42	2.80	5.56	110.55
2.90	21.82	93.29	2.90	5.16	93.17	2.90	4.58	100.42	2.90	5.89	110.55
3.00	26.83	93.29	3.00	5.92	93.18	3.00	5.51	100.42	3.00	6.46	110.58
3.10	35.26	93.28	3.10	7.53	93.18	3.10	6.52	100.42	3.10	7.84	110.58
3.20	43.48	93.28	3.20	9.51	93.18	3.20	7.61	100.42	3.20	8.91	110.61
3.30	55.95	93.27	3.30	12.77	93.18	3.30	9.53	100.42	3.30	10.25	110.61
3.40	67.78	93.27	3.40	16.28	93.19	3.40	12.35	100.42	3.40	11.60	110.64
3.50	86.50	93.25	3.50	22.20	93.19	3.50	16.08	100.40	3.50	14.74	110.64
3.60	104.35	93.25	3.60	28.28	93.20	3.60	19.77	100.40	3.60	17.08	110.67
3.70	132.25	93.25	3.70	38.36	93.20	3.70	26.94	100.41	3.70	20.51	110.67
3.80	156.64	93.25	3.80	48.25	93.21	3.80	33.88	100.41	3.80	24.18	110.68
3.90	195.14	93.24	3.90	64.64	93.21	3.90	44.08	100.41	3.90	30.10	110.68
4.00	231.55	93.24	4.00	81.42	93.21	4.00	55.17	100.41	4.00	35.54	110.71
4.10	286.03	93.22	4.10	107.22	93.21	4.10	72.37	100.41	4.10	43.74	110.71
4.20	335.32	93.22	4.20	133.01	93.23	4.20	89.56	100.41	4.20	51.42	110.73
4.30	409.11	93.21	4.30	172.54	93.23	4.30	115.66	100.41	4.30	63.74	110.73
4.40	477.02	93.21	4.40	212.05	93.24	4.40	141.92	100.41	4.40	74.42	110.75
4.50	574.54	93.21	4.50	269.18	93.24	4.50	179.96	100.40	4.50	90.30	110.75
4.60	688.21	93.21	4.60	340.87	93.25	4.60	227.77	100.40	4.60	110.07	110.78
4.70	787.32	93.20	4.70	408.85	93.25	4.70	272.63	100.40	4.70	127.79	110.78
4.80	937.69	93.20	4.80	510.69	93.26	4.80	340.53	100.40	4.80	153.63	110.81
4.90	1074.09	93.19	4.90	609.42	93.26	4.90	406.76	100.40	4.90	178.34	110.81
5.00	1267.33	93.19	5.00	751.02	93.28	5.00	502.03	100.40	5.00	213.67	110.83
5.10	1431.88	93.18	5.10	881.15	93.28	5.10	588.87	100.39	5.10	244.85	110.83
5.20	1690.79	93.18	5.20	1080.99	93.28	5.20	722.76	100.39	5.20	292.83	110.86
5.30	1906.19	93.17	5.30	1259.82	93.28	5.30	843.34	100.39	5.30	334.51	110.86
5.40	2227.44	93.17	5.40	1520.71	93.29	5.40	1018.49	100.39	5.40	395.68	110.89
5.50	2476.03	93.16	5.50	1742.31	93.29	5.50	1166.90	100.38	5.50	445.46	110.89
5.60	2850.44	93.16	5.60	2069.58	93.29	5.60	1386.44	100.38	5.60	521.87	110.91
5.70	3179.09	93.15	5.70	2357.47	93.29	5.70	1579.02	100.38	5.70	587.39	110.91
5.80	3628.77	93.15	5.80	2754.01	93.30	5.80	1844.18	100.38	5.80	677.01	110.94
5.90	3992.30	93.14	5.90	3081.18	93.30	5.90	2064.85	100.38	5.90	748.86	110.94
6.00	4496.18	93.14	6.00	3530.94	93.31	6.00	2361.96	100.38	6.00	843.46	110.94
6.10	4923.88	93.13	6.10	3917.46	93.31	6.10	2613.34	100.37	6.10	915.38	110.97
6.20	5473.41	93.13	6.20	4413.72	93.31	6.20	2932.55	100.37	6.20	996.37	110.97
6.30	5861.19	93.13	6.30	4787.34	93.31	6.30	3156.75	100.37	6.30	1032.61	111.00
6.40	6395.62	93.13	6.40	5261.87	93.31	6.40	3434.50	100.37	6.40	1057.46	111.00
6.50	6845.65	93.11	6.50	5662.60	93.31	6.50	3671.72	100.37	6.50	1074.31	111.02
6.60	7412.01	93.11	6.60	6166.94	93.32	6.60	3947.69	100.37	6.60	1086.90	111.02
6.70	7924.79	93.11	6.70	6621.11	93.32	6.70	4192.43	100.36	6.70	1075.77	111.05
6.80	8289.65	93.11	6.80	6944.05	93.33	6.80	4333.85	100.36	6.80	1045.91	111.05
6.90	8714.47	93.11	6.90	7325.07	93.33	6.90	4476.44	100.35	6.90	990.75	111.07
7.00	8940.06	93.09	7.00	7536.54	93.33	7.00	4503.11	100.35	7.00	916.53	111.07
7.10	9269.40	93.09	7.10	7776.30	93.34	7.10	4540.78	100.36	7.10	844.35	111.08
7.20	9535.28	93.08	7.20	7977.21	93.34	7.20	4582.48	100.36	7.20	796.97	111.08
7.30	9978.69	93.08	7.30	8323.87	93.35	7.30	4682.98	100.35	7.30	751.24	111.11
7.40	10347.80	93.08	7.40	8607.76	93.35	7.40	4765.46	100.35	7.40	716.64	111.11
7.40	10092.00	93.08	7.50	8977.53	93.35	7.50	4881.25	100.34	7.50	693.90	111.12
0.00	11380.77	93.05	7.60	9253.17	93.35	7.60	4975.38	100.34	7.60	684.69	111.12
			7.70	9695.17	93.36	7.70	5157.00	100.34	7.70	701.29	111.15
			7.80	10055.11	93.36	7.80	5339.61	100.34	7.80	732.21	111.15
			7.90	10617.34	93.37	7.90	5649.88	100.34	7.90	791.21	111.17
			0.00	11108.73	93.38	8.00	5967.59	100.33	8.00	836.68	111.17
						8.10	6448.06	100.33	8.10	889.39	111.19
						8.20	6980.30	100.32	8.20	955.39	111.19
						8.30	7506.11	100.32	8.30	1049.65	111.21
						8.40	7973.14	100.32	8.40	1162.79	111.21
						8.50	8641.46	100.32	8.50	1341.01	111.23
						8.60	9317.34	100.32	8.60	1493.90	111.23
						8.70	10262.48	100.32	8.70	1665.17	111.26
						8.70	10190.52	100.31	8.80	1809.95	111.26
						8.90	12190.26	100.31	8.90	2004.34	111.28
									9.00	2213.27	111.28
									9.10	2400.13	111.31
									9.20	2635.59	111.31
									9.30	2834.97	111.33
									9.40	3098.61	111.33
									9.50	3329.65	111.36
									9.60	3634.74	111.36
									9.70	3894.44	111.38
									9.80	4236.85	111.38
									9.90	4536.12	111.40
									10.00	4904.39	111.40
									10.10	5201.22	111.42
									10.20	5583.06	111.42
									10.30	5959.78	111.44
									10.40	6294.85	111.44
									10.50	6704.35	111.46
									10.60	7058.89	111.46
									10.70	7433.94	111.48
									10.80	7890.80	111.48
									10.90	8262.26	111.48
									11.00	8715.30	111.50
									11.10	9122.44	111.50
									11.20	9440.31	111.53
									11.30	9731.32	111.53
									11.40	9906.35	111.55
									11.50	9984.59	111.55
									11.60	10000.03	111.58
									11.70	9971.26	111.58
									11.80	9845.84	111.60
